File: ThemeT/BTO_XRD/1,2班XRD/201209_2班XRD.txt
;content of C:\Users\Bruker\AppData\Local\Temp\92fetmp-50337042.raw - (Diffrac Plus V4 file)
_FILEVERSION = 3
_SAMPLE = Commander Sample ID
_+SAMPLE
_USER = Lab Manager
_GONIOMETER_CODE = 21
_STAGE_CODE = 4
; Goniometer : D8 theta/theta, stage : Open eulerian craddle
_SAMPLE_CHANGER_CODE = 0
_ATTACHMENTS_CODE = 0
_GONIOMETER_RADIUS = 415
_MONOCHROMATOR = 0
; Incident beam monochromator : None
_BETA_FILTER = N
_ANALYZER_CODE = 0
; Received beam analyzer : None
_DATEMEASURED = 09-Dec-2020 13:42:57
_RUNTIME = 12.36928
_WL_UNIT = A
_WL1 = 1.5406
_WL2 = 1.54439
_WL3 = 1.39222
_WLRATIO = 0.5
_ANODE = Cu
_V4_INF_USER = Lab Manager
_V4_INF_SAMPLEID = Commander Sample ID
_V4_INF_CREATOR = V5Converter
_V4_INF_CREATOR_VERSION = 3.3.47.0
_V4_INF_SUBSTRATE = Si (no database)
_V4_INF_LAYER = Si (no database)

; Data for range 1
_DRIVE = COUPLED
_STEPTIME = 76.8
_STEPSIZE = 0.02026
_STEPMODE = C
_START = 20
_THETA = 9.9639
_2THETA = 20
_KHI = -0.25
_PHI = 0
_X = -10.255
_Y = -0.555
_Z = 0.7095
_DETECTORSLIT = out
_AUX2 = 0
_TIMESTARTED = 0
_KV = 40
_MA = 40
_RANGE_WL = 1.5406
_3DPLANE = 0
_V4_PSD2THETA = 9999
_V4_PSDCHANNEL1 = 0
_V4_PSDAPERTURE = 2.083855
_V4_PSDTYPE = 5
_V4_PSDFIXED = 0
_V4_COUNTERS_MASK = 1
_V4_DRIVES_MASK = 0
_V4_ENCODERS_MASK = 0
_2THETACOUNTS = 1
; 2THETA	Cnt2_D1
20	26
20.2026	20
20.4052	21
20.6078	17
20.8104	25
21.013	17
21.2156	23
21.4182	30
21.6208	23
21.8234	19
22.026	16
22.2286	24
22.4312	20
22.6338	13
22.8364	20
23.039	19
23.2416	18
23.4441	16
23.6467	16
23.8493	16
24.0519	18
24.2545	16
24.4571	20
24.6597	27
24.8623	23
25.0649	13
25.2675	13
25.4701	13
25.6727	18
25.8753	24
26.0779	20
26.2805	16
26.4831	15
26.6857	21
26.8883	17
27.0909	18
27.2935	12
27.4961	13
27.6987	17
27.9013	13
28.1039	15
28.3065	12
28.5091	19
28.7117	14
28.9143	10
29.1169	20
29.3195	14
29.5221	9.000000
29.7247	11
29.9273	18
30.1299	19
30.3324	13
30.535	14
30.7376	23
30.9402	22
31.1428	25
31.3454	28
31.548	33
31.7506	21
31.9532	16
32.1558	16
32.3584	7.000000
32.561	14
32.7636	6.000000
32.9662	8.000000
33.1688	12
33.3714	10
33.574	6.000000
33.7766	17
33.9792	9.000000
34.1818	4.000000
34.3844	19
34.587	12
34.7896	3.000000
34.9922	6.000000
35.1948	6.000000
35.3974	7.000000
35.6	7.000000
35.8026	7.000000
36.0052	4.000000
36.2078	9.000000
36.4104	10
36.613	14
36.8156	13
37.0181	8.000000
37.2207	7.000000
37.4233	7.000000
37.6259	7.000000
37.8285	9.000000
38.0311	14
38.2337	14
38.4363	16
38.6389	27
38.8415	35
39.0441	19
39.2467	30
39.4493	52
39.6519	126
39.8545	1246
40.0571	540
40.2597	72
40.4623	39
40.6649	32
40.8675	21
41.0701	12
41.2727	8.000000
41.4753	11
41.6779	11
41.8805	10
42.0831	13
42.2857	12
42.4883	3.000000
42.6909	15
42.8935	5.000000
43.0961	7.000000
43.2987	1.000000
43.5013	5.000000
43.7039	6.000000
43.9064	8.000000
44.109	4.000000
44.3116	11
44.5142	7.000000
44.7168	10
44.9194	9.000000
45.122	12
45.3246	16
45.5272	15
45.7298	17
45.9324	17
46.135	30
46.3376	142
46.5402	231
46.7428	43
46.9454	5.000000
47.148	5.000000
47.3506	11
47.5532	8.000000
47.7558	5.000000
47.9584	8.000000
48.161	11
48.3636	7.000000
48.5662	6.000000
48.7688	9.000000
48.9714	7.000000
49.174	8.000000
49.3766	6.000000
49.5792	8.000000
49.7818	4.000000
49.9844	3.000000
50.187	6.000000
50.3896	3.000000
50.5921	8.000000
50.7947	5.000000
50.9973	4.000000
51.1999	6.000000
51.4025	6.000000
51.6051	4.000000
51.8077	5.000000
52.0103	4.000000
52.2129	6.000000
52.4155	5.000000
52.6181	6.000000
52.8207	4.000000
53.0233	10
53.2259	2.000000
53.4285	5.000000
53.6311	12
53.8337	6.000000
54.0363	2.000000
54.2389	2.000000
54.4415	0.000000
54.6441	7.000000
54.8467	7.000000
55.0493	5.000000
55.2519	4.000000
55.4545	9.000000
55.6571	6.000000
55.8597	8.000000
56.0623	9.000000
56.2649	9.000000
56.4675	7.000000
56.6701	8.000000
56.8727	4.000000
57.0753	6.000000
57.2779	3.000000
57.4804	8.000000
57.683	9.000000
57.8856	8.000000
58.0882	6.000000
58.2908	6.000000
58.4934	7.000000
58.696	6.000000
58.8986	3.000000
59.1012	5.000000
59.3038	9.000000
59.5064	3.000000
59.709	5.000000
59.9116	2.000000
60.1142	6.000000
60.3168	5.000000
60.5194	5.000000
60.722	6.000000
60.9246	5.000000
61.1272	2.000000
61.3298	6.000000
61.5324	7.000000
61.735	12
61.9376	7.000000
62.1402	5.000000
62.3428	7.000000
62.5454	10
62.748	9.000000
62.9506	7.000000
63.1532	4.000000
63.3558	8.000000
63.5584	7.000000
63.761	10
63.9636	10
64.1661	10
64.3687	7.000000
64.5713	11
64.7739	9.000000
64.9765	11
65.1791	21
65.3817	19
65.5843	18
65.7869	47
65.9895	26
66.1921	21
66.3947	364
66.5973	524
66.7999	371
67.0025	406
67.2051	454
67.4077	481
67.6103	645
67.8129	697
68.0155	580
68.2181	657
68.4207	799
68.6233	1195
68.8259	3153
69.0285	42187
69.2311	47937
69.4337	9784
69.6363	1399
69.8389	718
70.0415	491
70.2441	346
70.4467	265
70.6493	218
70.8518	162
71.0544	147
71.257	103
71.4596	100
71.6622	74
71.8648	61
72.0674	60
72.27	39
72.4726	47
72.6752	31
72.8778	39
73.0804	38
73.283	37
73.4856	33
73.6882	32
73.8908	32
74.0934	21
74.296	21
74.4986	24
74.7012	15
74.9038	19
75.1064	19
75.309	24
75.5116	20
75.7142	16
75.9168	14
76.1194	25
76.322	24
76.5246	12
76.7272	13
76.9298	18
77.1324	11
77.335	12
77.5376	15
77.7401	9.000000
77.9427	8.000000
78.1453	13
78.3479	10
78.5505	6.000000
78.7531	8.000000
78.9557	8.000000
79.1583	8.000000
79.3609	9.000000
79.5635	7.000000
79.7661	15
79.9687	8.000000
80.0092	9.000000