File: ThemeT/BTO_XRD/1,2班XRD/201209_1班XRD.csv
;content of C:\Users\Bruker\AppData\Local\Temp\92fetmp-49812754.raw - (Diffrac Plus V4 file)
_FILEVERSION = 3
_SAMPLE = Commander Sample ID
_+SAMPLE
_USER = Lab Manager
_GONIOMETER_CODE = 21
_STAGE_CODE = 4
; Goniometer : D8 theta/theta, stage : Open eulerian craddle
_SAMPLE_CHANGER_CODE = 0
_ATTACHMENTS_CODE = 0
_GONIOMETER_RADIUS = 415
_MONOCHROMATOR = 0
; Incident beam monochromator : None
_BETA_FILTER = N
_ANALYZER_CODE = 0
; Received beam analyzer : None
_DATEMEASURED = 09-Dec-2020 15:20:24
_RUNTIME = 12.37281
_WL_UNIT = A
_WL1 = 1.5406
_WL2 = 1.54439
_WL3 = 1.39222
_WLRATIO = 0.5
_ANODE = Cu
_V4_INF_USER = Lab Manager
_V4_INF_SAMPLEID = Commander Sample ID
_V4_INF_CREATOR = V5Converter
_V4_INF_CREATOR_VERSION = 3.3.47.0
_V4_INF_SUBSTRATE = Si (no database)
_V4_INF_LAYER = Si (no database)

; Data for range 1
_DRIVE = COUPLED
_STEPTIME = 76.8
_STEPSIZE = 0.02026
_STEPMODE = C
_START = 20
_THETA = 10
_2THETA = 20
_KHI = -0.3
_PHI = 0
_X = -9.77
_Y = 0
_Z = 0.7
_DETECTORSLIT = out
_AUX2 = 0
_TIMESTARTED = 0
_KV = 40
_MA = 40
_RANGE_WL = 1.5406
_3DPLANE = 0
_V4_PSD2THETA = 9999
_V4_PSDCHANNEL1 = 0
_V4_PSDAPERTURE = 2.083855
_V4_PSDTYPE = 5
_V4_PSDFIXED = 0
_V4_COUNTERS_MASK = 1
_V4_DRIVES_MASK = 0
_V4_ENCODERS_MASK = 0
_2THETACOUNTS = 1
; 2THETA	Cnt2_D1
20	21
20.2026	15
20.4052	17
20.6078	18
20.8104	23
21.013	19
21.2156	14
21.4182	13
21.6208	20
21.8234	18
22.026	25
22.2286	21
22.4312	29
22.6338	18
22.8364	22
23.039	28
23.2416	18
23.4441	27
23.6467	18
23.8493	15
24.0519	18
24.2545	9.000000
24.4571	15
24.6597	18
24.8623	12
25.0649	12
25.2675	14
25.4701	13
25.6727	19
25.8753	16
26.0779	15
26.2805	15
26.4831	16
26.6857	12
26.8883	13
27.0909	23
27.2935	9.000000
27.4961	16
27.6987	14
27.9013	10
28.1039	10
28.3065	8.000000
28.5091	14
28.7117	16
28.9143	32
29.1169	27
29.3195	15
29.5221	9.000000
29.7247	8.000000
29.9273	8.000000
30.1299	7.000000
30.3324	13
30.535	11
30.7376	8.000000
30.9402	8.000000
31.1428	15
31.3454	7.000000
31.548	7.000000
31.7506	13
31.9532	6.000000
32.1558	15
32.3584	10
32.561	12
32.7636	23
32.9662	420
33.1688	24
33.3714	12
33.574	6.000000
33.7766	8.000000
33.9792	9.000000
34.1818	6.000000
34.3844	7.000000
34.587	8.000000
34.7896	8.000000
34.9922	12
35.1948	10
35.3974	6.000000
35.6	2.000000
35.8026	8.000000
36.0052	5.000000
36.2078	9.000000
36.4104	11
36.613	6.000000
36.8156	6.000000
37.0181	7.000000
37.2207	6.000000
37.4233	6.000000
37.6259	12
37.8285	5.000000
38.0311	3.000000
38.2337	11
38.4363	4.000000
38.6389	5.000000
38.8415	12
39.0441	7.000000
39.2467	3.000000
39.4493	10
39.6519	0.000000
39.8545	10
40.0571	8.000000
40.2597	8.000000
40.4623	9.000000
40.6649	8.000000
40.8675	6.000000
41.0701	9.000000
41.2727	6.000000
41.4753	5.000000
41.6779	6.000000
41.8805	3.000000
42.0831	8.000000
42.2857	5.000000
42.4883	5.000000
42.6909	9.000000
42.8935	6.000000
43.0961	5.000000
43.2987	5.000000
43.5013	8.000000
43.7039	2.000000
43.9064	11
44.109	9.000000
44.3116	6.000000
44.5142	1.000000
44.7168	5.000000
44.9194	5.000000
45.122	7.000000
45.3246	4.000000
45.5272	9.000000
45.7298	5.000000
45.9324	5.000000
46.135	3.000000
46.3376	4.000000
46.5402	2.000000
46.7428	6.000000
46.9454	6.000000
47.148	7.000000
47.3506	7.000000
47.5532	9.000000
47.7558	3.000000
47.9584	4.000000
48.161	1.000000
48.3636	5.000000
48.5662	5.000000
48.7688	7.000000
48.9714	5.000000
49.174	6.000000
49.3766	2.000000
49.5792	6.000000
49.7818	0.000000
49.9844	5.000000
50.187	4.000000
50.3896	5.000000
50.5921	3.000000
50.7947	6.000000
50.9973	9.000000
51.1999	4.000000
51.4025	6.000000
51.6051	4.000000
51.8077	8.000000
52.0103	6.000000
52.2129	4.000000
52.4155	5.000000
52.6181	11
52.8207	2.000000
53.0233	2.000000
53.2259	2.000000
53.4285	9.000000
53.6311	4.000000
53.8337	6.000000
54.0363	7.000000
54.2389	1.000000
54.4415	3.000000
54.6441	7.000000
54.8467	4.000000
55.0493	7.000000
55.2519	3.000000
55.4545	4.000000
55.6571	2.000000
55.8597	6.000000
56.0623	6.000000
56.2649	7.000000
56.4675	9.000000
56.6701	7.000000
56.8727	3.000000
57.0753	6.000000
57.2779	8.000000
57.4804	7.000000
57.683	8.000000
57.8856	7.000000
58.0882	7.000000
58.2908	5.000000
58.4934	0.000000
58.696	5.000000
58.8986	2.000000
59.1012	10
59.3038	5.000000
59.5064	6.000000
59.709	7.000000
59.9116	10
60.1142	6.000000
60.3168	7.000000
60.5194	6.000000
60.722	5.000000
60.9246	5.000000
61.1272	7.000000
61.3298	5.000000
61.5324	6.000000
61.735	18
61.9376	9.000000
62.1402	6.000000
62.3428	9.000000
62.5454	7.000000
62.748	5.000000
62.9506	8.000000
63.1532	4.000000
63.3558	8.000000
63.5584	12
63.761	9.000000
63.9636	10
64.1661	11
64.3687	13
64.5713	13
64.7739	8.000000
64.9765	15
65.1791	16
65.3817	16
65.5843	17
65.7869	41
65.9895	36
66.1921	34
66.3947	383
66.5973	534
66.7999	449
67.0025	487
67.2051	438
67.4077	529
67.6103	540
67.8129	607
68.0155	662
68.2181	839
68.4207	935
68.6233	1547
68.8259	3834
69.0285	44948
69.2311	57215
69.4337	12787
69.6363	1808
69.8389	934
70.0415	651
70.2441	428
70.4467	361
70.6493	272
70.8518	227
71.0544	170
71.257	142
71.4596	130
71.6622	94
71.8648	103
72.0674	61
72.27	65
72.4726	59
72.6752	46
72.8778	42
73.0804	47
73.283	56
73.4856	34
73.6882	32
73.8908	22
74.0934	32
74.296	22
74.4986	18
74.7012	19
74.9038	18
75.1064	14
75.309	22
75.5116	11
75.7142	23
75.9168	17
76.1194	22
76.322	29
76.5246	17
76.7272	14
76.9298	10
77.1324	14
77.335	11
77.5376	11
77.7401	10
77.9427	11
78.1453	7.000000
78.3479	10
78.5505	15
78.7531	6.000000
78.9557	14
79.1583	8.000000
79.3609	4.000000
79.5635	5.000000
79.7661	8.000000
79.9687	6.000000
80.0295	8.000000