File: ThemeT/BTO_XRD/3,4班XRD/201209_3班XRD.csv
;content of C:\Users\Bruker\AppData\Local\Temp\92fetmp-49747219.raw - (Diffrac Plus V4 file)
_FILEVERSION = 3
_SAMPLE = Commander Sample ID
_+SAMPLE
_USER = Lab Manager
_GONIOMETER_CODE = 21
_STAGE_CODE = 4
; Goniometer : D8 theta/theta, stage : Open eulerian craddle
_SAMPLE_CHANGER_CODE = 0
_ATTACHMENTS_CODE = 0
_GONIOMETER_RADIUS = 415
_MONOCHROMATOR = 0
; Incident beam monochromator : None
_BETA_FILTER = N
_ANALYZER_CODE = 0
; Received beam analyzer : None
_DATEMEASURED = 09-Dec-2020 15:50:10
_RUNTIME = 12.37974
_WL_UNIT = A
_WL1 = 1.5406
_WL2 = 1.54439
_WL3 = 1.39222
_WLRATIO = 0.5
_ANODE = Cu
_V4_INF_USER = Lab Manager
_V4_INF_SAMPLEID = Commander Sample ID
_V4_INF_CREATOR = V5Converter
_V4_INF_CREATOR_VERSION = 3.3.47.0
_V4_INF_SUBSTRATE = Si (no database)
_V4_INF_LAYER = Si (no database)

; Data for range 1
_DRIVE = COUPLED
_STEPTIME = 76.8
_STEPSIZE = 0.02026
_STEPMODE = C
_START = 20
_THETA = 10
_2THETA = 20
_KHI = -0.4002
_PHI = 0
_X = -9.722
_Y = 0
_Z = 0.682
_DETECTORSLIT = out
_AUX2 = 0
_TIMESTARTED = 0
_KV = 40
_MA = 40
_RANGE_WL = 1.5406
_3DPLANE = 0
_V4_PSD2THETA = 9999
_V4_PSDCHANNEL1 = 0
_V4_PSDAPERTURE = 2.083855
_V4_PSDTYPE = 5
_V4_PSDFIXED = 0
_V4_COUNTERS_MASK = 1
_V4_DRIVES_MASK = 0
_V4_ENCODERS_MASK = 0
_2THETACOUNTS = 1
; 2THETA	Cnt2_D1
20	26
20.2026	17
20.4052	25
20.6078	16
20.8104	25
21.013	34
21.2156	26
21.4182	18
21.6208	25
21.8234	27
22.026	43
22.2286	36
22.4312	39
22.6338	38
22.8364	27
23.039	25
23.2416	21
23.4441	21
23.6467	13
23.8493	16
24.0519	21
24.2545	19
24.4571	20
24.6597	24
24.8623	17
25.0649	21
25.2675	13
25.4701	10
25.6727	18
25.8753	18
26.0779	18
26.2805	15
26.4831	23
26.6857	20
26.8883	18
27.0909	13
27.2935	18
27.4961	13
27.6987	11
27.9013	17
28.1039	12
28.3065	13
28.5091	14
28.7117	20
28.9143	20
29.1169	23
29.3195	6.000000
29.5221	18
29.7247	24
29.9273	18
30.1299	20
30.3324	21
30.535	24
30.7376	29
30.9402	25
31.1428	66
31.3454	89
31.548	129
31.7506	93
31.9532	70
32.1558	83
32.3584	68
32.561	99
32.7636	263
32.9662	6726
33.1688	182
33.3714	24
33.574	16
33.7766	17
33.9792	24
34.1818	18
34.3844	17
34.587	11
34.7896	10
34.9922	9.000000
35.1948	10
35.3974	9.000000
35.6	9.000000
35.8026	5.000000
36.0052	7.000000
36.2078	11
36.4104	7.000000
36.613	8.000000
36.8156	15
37.0181	8.000000
37.2207	11
37.4233	7.000000
37.6259	10
37.8285	2.000000
38.0311	16
38.2337	13
38.4363	7.000000
38.6389	21
38.8415	27
39.0441	33
39.2467	16
39.4493	10
39.6519	13
39.8545	4.000000
40.0571	11
40.2597	16
40.4623	3.000000
40.6649	7.000000
40.8675	11
41.0701	13
41.2727	11
41.4753	5.000000
41.6779	11
41.8805	10
42.0831	6.000000
42.2857	8.000000
42.4883	3.000000
42.6909	6.000000
42.8935	9.000000
43.0961	6.000000
43.2987	10
43.5013	16
43.7039	16
43.9064	16
44.109	24
44.3116	30
44.5142	33
44.7168	42
44.9194	43
45.122	47
45.3246	39
45.5272	21
45.7298	18
45.9324	6.000000
46.135	12
46.3376	10
46.5402	7.000000
46.7428	3.000000
46.9454	5.000000
47.148	6.000000
47.3506	5.000000
47.5532	2.000000
47.7558	8.000000
47.9584	13
48.161	5.000000
48.3636	6.000000
48.5662	10
48.7688	7.000000
48.9714	3.000000
49.174	7.000000
49.3766	2.000000
49.5792	2.000000
49.7818	4.000000
49.9844	7.000000
50.187	6.000000
50.3896	10
50.5921	12
50.7947	7.000000
50.9973	17
51.1999	4.000000
51.4025	9.000000
51.6051	6.000000
51.8077	6.000000
52.0103	3.000000
52.2129	6.000000
52.4155	3.000000
52.6181	4.000000
52.8207	3.000000
53.0233	11
53.2259	3.000000
53.4285	8.000000
53.6311	6.000000
53.8337	2.000000
54.0363	7.000000
54.2389	5.000000
54.4415	7.000000
54.6441	10
54.8467	7.000000
55.0493	7.000000
55.2519	6.000000
55.4545	15
55.6571	11
55.8597	18
56.0623	26
56.2649	20
56.4675	26
56.6701	11
56.8727	12
57.0753	4.000000
57.2779	9.000000
57.4804	3.000000
57.683	10
57.8856	12
58.0882	4.000000
58.2908	8.000000
58.4934	3.000000
58.696	6.000000
58.8986	5.000000
59.1012	6.000000
59.3038	7.000000
59.5064	9.000000
59.709	5.000000
59.9116	5.000000
60.1142	5.000000
60.3168	8.000000
60.5194	9.000000
60.722	10
60.9246	11
61.1272	7.000000
61.3298	7.000000
61.5324	8.000000
61.735	28
61.9376	15
62.1402	10
62.3428	10
62.5454	6.000000
62.748	7.000000
62.9506	13
63.1532	7.000000
63.3558	6.000000
63.5584	9.000000
63.761	9.000000
63.9636	11
64.1661	11
64.3687	8.000000
64.5713	17
64.7739	13
64.9765	13
65.1791	13
65.3817	17
65.5843	32
65.7869	73
65.9895	54
66.1921	29
66.3947	696
66.5973	924
66.7999	754
67.0025	763
67.2051	873
67.4077	848
67.6103	921
67.8129	1019
68.0155	1121
68.2181	1183
68.4207	1500
68.6233	2222
68.8259	6063
69.0285	100994
69.2311	102166
69.4337	19376
69.6363	2625
69.8389	1311
70.0415	878
70.2441	658
70.4467	490
70.6493	406
70.8518	334
71.0544	228
71.257	203
71.4596	168
71.6622	126
71.8648	115
72.0674	94
72.27	90
72.4726	84
72.6752	66
72.8778	68
73.0804	46
73.283	53
73.4856	44
73.6882	50
73.8908	46
74.0934	50
74.296	33
74.4986	35
74.7012	38
74.9038	30
75.1064	33
75.309	32
75.5116	24
75.7142	23
75.9168	26
76.1194	23
76.322	49
76.5246	36
76.7272	28
76.9298	11
77.1324	17
77.335	14
77.5376	17
77.7401	10
77.9427	19
78.1453	3.000000
78.3479	12
78.5505	18
78.7531	15
78.9557	13
79.1583	12
79.3609	15
79.5635	11
79.7661	10
79.9687	9.000000
80.0295	7.000000