File: ThemeT/BTO_XRD/3,4班XRD/201209_4班XRD.csv
;content of C:\Users\Bruker\AppData\Local\Temp\92fetmp-49747219.raw - (Diffrac Plus V4 file)
_FILEVERSION = 3
_SAMPLE = Commander Sample ID
_+SAMPLE
_USER = Lab Manager
_GONIOMETER_CODE = 21
_STAGE_CODE = 4
; Goniometer : D8 theta/theta, stage : Open eulerian craddle
_SAMPLE_CHANGER_CODE = 0
_ATTACHMENTS_CODE = 0
_GONIOMETER_RADIUS = 415
_MONOCHROMATOR = 0
; Incident beam monochromator : None
_BETA_FILTER = N
_ANALYZER_CODE = 0
; Received beam analyzer : None
_DATEMEASURED = 09-Dec-2020 14:53:21
_RUNTIME = 12.37992
_WL_UNIT = A
_WL1 = 1.5406
_WL2 = 1.54439
_WL3 = 1.39222
_WLRATIO = 0.5
_ANODE = Cu
_V4_INF_USER = Lab Manager
_V4_INF_SAMPLEID = Commander Sample ID
_V4_INF_CREATOR = V5Converter
_V4_INF_CREATOR_VERSION = 3.3.47.0
_V4_INF_SUBSTRATE = Si (no database)
_V4_INF_LAYER = Si (no database)

; Data for range 1
_DRIVE = COUPLED
_STEPTIME = 76.8
_STEPSIZE = 0.02026
_STEPMODE = C
_START = 20
_THETA = 10
_2THETA = 20
_KHI = -0.45
_PHI = 0
_X = -13.384
_Y = 0
_Z = 0.674
_DETECTORSLIT = out
_AUX2 = 0
_TIMESTARTED = 0
_KV = 40
_MA = 40
_RANGE_WL = 1.5406
_3DPLANE = 0
_V4_PSD2THETA = 9999
_V4_PSDCHANNEL1 = 0
_V4_PSDAPERTURE = 2.083855
_V4_PSDTYPE = 5
_V4_PSDFIXED = 0
_V4_COUNTERS_MASK = 1
_V4_DRIVES_MASK = 0
_V4_ENCODERS_MASK = 0
_2THETACOUNTS = 1
; 2THETA	Cnt2_D1
20	21
20.2026	21
20.4052	18
20.6078	15
20.8104	21
21.013	20
21.2156	19
21.4182	19
21.6208	28
21.8234	27
22.026	35
22.2286	48
22.4312	32
22.6338	23
22.8364	20
23.039	22
23.2416	19
23.4441	18
23.6467	21
23.8493	15
24.0519	21
24.2545	11
24.4571	18
24.6597	17
24.8623	11
25.0649	12
25.2675	13
25.4701	14
25.6727	21
25.8753	18
26.0779	15
26.2805	19
26.4831	13
26.6857	13
26.8883	11
27.0909	15
27.2935	18
27.4961	16
27.6987	12
27.9013	11
28.1039	15
28.3065	12
28.5091	11
28.7117	15
28.9143	17
29.1169	19
29.3195	12
29.5221	14
29.7247	9.000000
29.9273	17
30.1299	14
30.3324	18
30.535	19
30.7376	16
30.9402	30
31.1428	49
31.3454	101
31.548	173
31.7506	100
31.9532	41
32.1558	49
32.3584	23
32.561	24
32.7636	33
32.9662	492
33.1688	27
33.3714	8.000000
33.574	14
33.7766	19
33.9792	32
34.1818	70
34.3844	38
34.587	26
34.7896	14
34.9922	13
35.1948	12
35.3974	9.000000
35.6	11
35.8026	5.000000
36.0052	9.000000
36.2078	5.000000
36.4104	4.000000
36.613	13
36.8156	12
37.0181	12
37.2207	9.000000
37.4233	11
37.6259	13
37.8285	10
38.0311	8.000000
38.2337	8.000000
38.4363	22
38.6389	31
38.8415	51
39.0441	57
39.2467	27
39.4493	35
39.6519	126
39.8545	1686
40.0571	481
40.2597	68
40.4623	29
40.6649	16
40.8675	9.000000
41.0701	16
41.2727	13
41.4753	9.000000
41.6779	5.000000
41.8805	9.000000
42.0831	11
42.2857	5.000000
42.4883	14
42.6909	6.000000
42.8935	7.000000
43.0961	6.000000
43.2987	8.000000
43.5013	6.000000
43.7039	7.000000
43.9064	10
44.109	11
44.3116	12
44.5142	13
44.7168	14
44.9194	18
45.122	29
45.3246	19
45.5272	24
45.7298	17
45.9324	15
46.135	35
46.3376	171
46.5402	209
46.7428	35
46.9454	11
47.148	4.000000
47.3506	9.000000
47.5532	5.000000
47.7558	6.000000
47.9584	7.000000
48.161	5.000000
48.3636	4.000000
48.5662	6.000000
48.7688	9.000000
48.9714	10
49.174	6.000000
49.3766	8.000000
49.5792	7.000000
49.7818	4.000000
49.9844	4.000000
50.187	11
50.3896	5.000000
50.5921	10
50.7947	16
50.9973	11
51.1999	8.000000
51.4025	4.000000
51.6051	3.000000
51.8077	5.000000
52.0103	9.000000
52.2129	5.000000
52.4155	5.000000
52.6181	5.000000
52.8207	8.000000
53.0233	2.000000
53.2259	10
53.4285	5.000000
53.6311	6.000000
53.8337	8.000000
54.0363	4.000000
54.2389	5.000000
54.4415	11
54.6441	7.000000
54.8467	5.000000
55.0493	5.000000
55.2519	14
55.4545	10
55.6571	15
55.8597	22
56.0623	29
56.2649	26
56.4675	28
56.6701	15
56.8727	11
57.0753	10
57.2779	4.000000
57.4804	7.000000
57.683	5.000000
57.8856	6.000000
58.0882	3.000000
58.2908	4.000000
58.4934	3.000000
58.696	2.000000
58.8986	2.000000
59.1012	4.000000
59.3038	9.000000
59.5064	4.000000
59.709	3.000000
59.9116	8.000000
60.1142	1.000000
60.3168	5.000000
60.5194	12
60.722	6.000000
60.9246	3.000000
61.1272	6.000000
61.3298	14
61.5324	10
61.735	29
61.9376	6.000000
62.1402	10
62.3428	7.000000
62.5454	6.000000
62.748	7.000000
62.9506	7.000000
63.1532	8.000000
63.3558	8.000000
63.5584	5.000000
63.761	11
63.9636	4.000000
64.1661	11
64.3687	15
64.5713	7.000000
64.7739	18
64.9765	13
65.1791	22
65.3817	22
65.5843	17
65.7869	85
65.9895	30
66.1921	27
66.3947	725
66.5973	850
66.7999	649
67.0025	703
67.2051	727
67.4077	817
67.6103	995
67.8129	982
68.0155	962
68.2181	1023
68.4207	1264
68.6233	1924
68.8259	5313
69.0285	99560
69.2311	88535
69.4337	15066
69.6363	2058
69.8389	1103
70.0415	799
70.2441	560
70.4467	397
70.6493	331
70.8518	270
71.0544	215
71.257	161
71.4596	118
71.6622	120
71.8648	96
72.0674	95
72.27	70
72.4726	56
72.6752	50
72.8778	56
73.0804	37
73.283	49
73.4856	41
73.6882	27
73.8908	46
74.0934	30
74.296	44
74.4986	36
74.7012	27
74.9038	25
75.1064	29
75.309	22
75.5116	24
75.7142	24
75.9168	24
76.1194	17
76.322	48
76.5246	25
76.7272	14
76.9298	10
77.1324	18
77.335	14
77.5376	14
77.7401	20
77.9427	10
78.1453	10
78.3479	11
78.5505	6.000000
78.7531	13
78.9557	11
79.1583	10
79.3609	10
79.5635	13
79.7661	8.000000
79.9687	13
80.0295	15